# WaveAns.  Transmission
 6580.00    0.00000
 6590.00    0.00000
 6600.00    0.00000
 6610.00    0.00037
 6620.00    0.00074
 6630.00    0.00111
 6640.00    0.00148
 6650.00    0.00185
 6660.00    0.00222
 6670.00    0.00259
 6680.00    0.00296
 6690.00    0.00334
 6700.00    0.00371
 6710.00    0.00409
 6720.00    0.00447
 6730.00    0.00485
 6740.00    0.00522
 6750.00    0.00560
 6760.00    0.00598
 6770.00    0.00637
 6780.00    0.03792
 6790.00    0.06955
 6800.00    0.10125
 6810.00    0.13302
 6820.00    0.16487
 6830.00    0.19678
 6840.00    0.22878
 6850.00    0.26084
 6860.00    0.29298
 6870.00    0.32598
 6880.00    0.36615
 6890.00    0.40641
 6900.00    0.44676
 6910.00    0.48715
 6920.00    0.52762
 6930.00    0.56817
 6940.00    0.60880
 6950.00    0.64952
 6960.00    0.65018
 6970.00    0.65084
 6980.00    0.65151
 6990.00    0.65217
 7000.00    0.65283
 7010.00    0.65335
 7020.00    0.65386
 7030.00    0.65438
 7040.00    0.65489
 7050.00    0.65541
 7060.00    0.65592
 7070.00    0.65644
 7080.00    0.65695
 7090.00    0.65747
 7100.00    0.65798
 7110.00    0.65843
 7120.00    0.65887
 7130.00    0.65931
 7140.00    0.65975
 7150.00    0.66019
 7160.00    0.66063
 7170.00    0.66108
 7180.00    0.66152
 7190.00    0.66196
 7200.00    0.66240
 7210.00    0.66262
 7220.00    0.66284
 7230.00    0.66306
 7240.00    0.66328
 7250.00    0.66350
 7260.00    0.66372
 7270.00    0.66395
 7280.00    0.66417
 7290.00    0.66439
 7300.00    0.66461
 7310.00    0.66483
 7320.00    0.66505
 7330.00    0.66527
 7340.00    0.66549
 7350.00    0.66571
 7360.00    0.66593
 7370.00    0.66615
 7380.00    0.66637
 7390.00    0.66660
 7400.00    0.66682
 7410.00    0.66689
 7420.00    0.66696
 7430.00    0.66704
 7440.00    0.66711
 7450.00    0.66718
 7460.00    0.66726
 7470.00    0.66733
 7480.00    0.66740
 7490.00    0.66748
 7500.00    0.66755
 7510.00    0.66755
 7520.00    0.66755
 7530.00    0.66755
 7540.00    0.66755
 7550.00    0.66755
 7560.00    0.66755
 7570.00    0.66755
 7580.00    0.66755
 7590.00    0.66755
 7600.00    0.66755
 7610.00    0.66755
 7620.00    0.66755
 7630.00    0.66755
 7640.00    0.66755
 7650.00    0.66755
 7660.00    0.66755
 7670.00    0.66755
 7680.00    0.66755
 7690.00    0.66755
 7700.00    0.66755
 7710.00    0.66733
 7720.00    0.66711
 7730.00    0.66689
 7740.00    0.66667
 7750.00    0.66645
 7760.00    0.66623
 7770.00    0.66601
 7780.00    0.66579
 7790.00    0.66556
 7800.00    0.66534
 7810.00    0.66490
 7820.00    0.66446
 7830.00    0.66402
 7840.00    0.66358
 7850.00    0.66314
 7860.00    0.66269
 7870.00    0.66225
 7880.00    0.66181
 7890.00    0.66137
 7900.00    0.66093
 7910.00    0.66027
 7920.00    0.65960
 7930.00    0.65894
 7940.00    0.65828
 7950.00    0.65762
 7960.00    0.65695
 7970.00    0.65629
 7980.00    0.65563
 7990.00    0.65497
 8000.00    0.65430
 8010.00    0.65364
 8020.00    0.65298
 8030.00    0.65232
 8040.00    0.65165
 8050.00    0.65099
 8060.00    0.65033
 8070.00    0.64967
 8080.00    0.64900
 8090.00    0.64834
 8100.00    0.64768
 8110.00    0.64665
 8120.00    0.64562
 8130.00    0.64459
 8140.00    0.64356
 8150.00    0.64253
 8160.00    0.64150
 8170.00    0.64047
 8180.00    0.63944
 8190.00    0.63841
 8200.00    0.63738
 8210.00    0.63605
 8220.00    0.63473
 8230.00    0.63340
 8240.00    0.63208
 8250.00    0.63075
 8260.00    0.62943
 8270.00    0.62810
 8280.00    0.62678
 8290.00    0.62545
 8300.00    0.62413
 8310.00    0.62251
 8320.00    0.62089
 8330.00    0.61927
 8340.00    0.58480
 8350.00    0.55050
 8360.00    0.51637
 8370.00    0.48241
 8380.00    0.44863
 8390.00    0.41502
 8400.00    0.38158
 8410.00    0.34823
 8420.00    0.31506
 8430.00    0.28604
 8440.00    0.25982
 8450.00    0.23375
 8460.00    0.20783
 8470.00    0.18206
 8480.00    0.15644
 8490.00    0.13096
 8500.00    0.10564
 8510.00    0.08041
 8520.00    0.05537
 8530.00    0.03050
 8540.00    0.00582
 8550.00    0.00567
 8560.00    0.00552
 8570.00    0.00538
 8580.00    0.00523
 8590.00    0.00509
 8600.00    0.00495
 8610.00    0.00480
 8620.00    0.00466
 8630.00    0.00452
 8640.00    0.00437
 8650.00    0.00423
 8660.00    0.00409
 8670.00    0.00396
 8680.00    0.00382
 8690.00    0.00368
 8700.00    0.00355
 8710.00    0.00341
 8720.00    0.00328
 8730.00    0.00315
 8740.00    0.00302
 8750.00    0.00289
 8760.00    0.00276
 8770.00    0.00263
 8780.00    0.00250
 8790.00    0.00238
 8800.00    0.00225
 8810.00    0.00213
 8820.00    0.00201
 8830.00    0.00188
 8840.00    0.00176
 8850.00    0.00164
 8860.00    0.00153
 8870.00    0.00141
 8880.00    0.00129
 8890.00    0.00118
 8900.00    0.00107
 8910.00    0.00095
 8920.00    0.00084
 8930.00    0.00073
 8940.00    0.00062
 8950.00    0.00052
 8960.00    0.00041
 8970.00    0.00031
 8980.00    0.00020
 8990.00    0.00010
 9000.00    0.00000
 9010.00    0.00000
 9020.00    0.00000